ENVI
description = {
  New spectral library file [Thu Mar 23 12:59:46 2017]}
samples = 1021
lines   = 3
bands   = 1
header offset = 0
file type = ENVI Spectral Library
data type = 5
interleave = bsq
sensor type = Unknown
byte order = 0
sun azimuth = -1.00000000
sun elevation = -1.00000000
cloud cover = -1.00000000
wavelength units = Nanometers
z plot titles = {, Value}
band names = {
 Spectral Library}
spectra names = {
 Black, Grey, White}
wavelength = {
  339.799988,  341.299988,  342.799988,  344.200012,  345.700012,  347.100006,
  348.600006,  350.100006,  351.500000,  353.000000,  354.500000,  356.000000,
  357.399994,  358.899994,  360.399994,  361.799988,  363.299988,  364.799988,
  366.200012,  367.700012,  369.200012,  370.600006,  372.100006,  373.600006,
  375.000000,  376.500000,  378.000000,  379.399994,  380.899994,  382.399994,
  383.799988,  385.299988,  386.799988,  388.200012,  389.700012,  391.100006,
  392.600006,  394.100006,  395.500000,  397.000000,  398.500000,  399.899994,
  401.399994,  402.799988,  404.299988,  405.799988,  407.200012,  408.700012,
  410.100006,  411.600006,  413.000000,  414.500000,  416.000000,  417.399994,
  418.899994,  420.299988,  421.799988,  423.200012,  424.700012,  426.100006,
  427.600006,  429.000000,  430.500000,  431.899994,  433.399994,  434.799988,
  436.299988,  437.700012,  439.200012,  440.600006,  442.100006,  443.500000,
  445.000000,  446.399994,  447.799988,  449.299988,  450.700012,  452.100006,
  453.600006,  455.000000,  456.500000,  457.899994,  459.299988,  460.799988,
  462.200012,  463.600006,  465.100006,  466.500000,  467.899994,  469.399994,
  470.799988,  472.200012,  473.600006,  475.100006,  476.500000,  477.899994,
  479.399994,  480.799988,  482.200012,  483.600006,  485.000000,  486.500000,
  487.899994,  489.299988,  490.700012,  492.100006,  493.600006,  495.000000,
  496.399994,  497.799988,  499.200012,  500.600006,  502.000000,  503.500000,
  504.899994,  506.299988,  507.700012,  509.100006,  510.500000,  511.899994,
  513.299988,  514.700012,  516.099976,  517.500000,  518.900024,  520.299988,
  521.700012,  523.200012,  524.500000,  526.000000,  527.299988,  528.700012,
  530.099976,  531.500000,  532.900024,  534.299988,  535.700012,  537.099976,
  538.500000,  539.900024,  541.299988,  542.700012,  544.099976,  545.500000,
  546.900024,  548.299988,  549.700012,  551.000000,  552.400024,  553.799988,
  555.200012,  556.599976,  558.000000,  559.299988,  560.700012,  562.099976,
  563.500000,  564.900024,  566.299988,  567.599976,  569.000000,  570.400024,
  571.799988,  573.200012,  574.500000,  575.900024,  577.299988,  578.700012,
  580.000000,  581.400024,  582.799988,  584.200012,  585.500000,  586.900024,
  588.299988,  589.700012,  591.000000,  592.400024,  593.799988,  595.099976,
  596.500000,  597.900024,  599.200012,  600.599976,  602.000000,  603.299988,
  604.700012,  606.099976,  607.400024,  608.799988,  610.200012,  611.500000,
  612.900024,  614.200012,  615.599976,  617.000000,  618.299988,  619.700012,
  621.000000,  622.400024,  623.799988,  625.099976,  626.500000,  627.799988,
  629.200012,  630.500000,  631.900024,  633.200012,  634.599976,  636.000000,
  637.299988,  638.700012,  640.000000,  641.299988,  642.700012,  644.000000,
  645.400024,  646.799988,  648.099976,  649.500000,  650.799988,  652.099976,
  653.500000,  654.799988,  656.200012,  657.500000,  658.900024,  660.200012,
  661.500000,  662.900024,  664.200012,  665.599976,  666.900024,  668.299988,
  669.599976,  670.900024,  672.299988,  673.599976,  675.000000,  676.299988,
  677.599976,  679.000000,  680.299988,  681.599976,  683.000000,  684.299988,
  685.599976,  687.000000,  688.299988,  689.599976,  691.000000,  692.299988,
  693.599976,  694.900024,  696.299988,  697.599976,  698.900024,  700.200012,
  701.599976,  702.900024,  704.200012,  705.500000,  706.900024,  708.200012,
  709.500000,  710.799988,  712.200012,  713.500000,  714.799988,  716.099976,
  717.400024,  718.799988,  720.099976,  721.400024,  722.700012,  724.000000,
  725.299988,  726.599976,  728.000000,  729.299988,  730.599976,  731.900024,
  733.200012,  734.500000,  735.799988,  737.099976,  738.400024,  739.700012,
  741.000000,  742.299988,  743.599976,  744.900024,  746.200012,  747.500000,
  748.799988,  750.099976,  751.400024,  752.700012,  754.000000,  755.299988,
  756.599976,  757.900024,  759.200012,  760.500000,  761.799988,  763.099976,
  764.400024,  765.700012,  767.000000,  768.200012,  769.500000,  770.799988,
  772.099976,  773.400024,  774.700012,  775.900024,  777.200012,  778.500000,
  779.799988,  781.000000,  782.299988,  783.599976,  784.900024,  786.200012,
  787.400024,  788.700012,  790.000000,  791.200012,  792.500000,  793.799988,
  795.000000,  796.299988,  797.599976,  798.799988,  800.099976,  801.299988,
  802.599976,  803.900024,  805.099976,  806.400024,  807.599976,  808.900024,
  810.200012,  811.400024,  812.700012,  813.900024,  815.200012,  816.400024,
  817.599976,  818.900024,  820.099976,  821.400024,  822.599976,  823.900024,
  825.099976,  826.299988,  827.599976,  828.799988,  830.000000,  831.299988,
  832.500000,  833.700012,  835.000000,  836.200012,  837.400024,  838.700012,
  839.900024,  841.099976,  842.299988,  843.500000,  844.799988,  846.000000,
  847.200012,  848.400024,  849.599976,  850.799988,  852.099976,  853.299988,
  854.500000,  855.700012,  856.900024,  858.099976,  859.299988,  860.500000,
  861.700012,  862.900024,  864.099976,  865.299988,  866.500000,  867.700012,
  868.900024,  870.099976,  871.299988,  872.500000,  873.700012,  874.900024,
  876.099976,  877.299988,  878.500000,  879.599976,  880.799988,  882.000000,
  883.200012,  884.400024,  885.500000,  886.700012,  887.900024,  889.099976,
  890.200012,  891.400024,  892.599976,  893.799988,  894.900024,  896.099976,
  897.299988,  898.500000,  899.599976,  900.799988,  902.000000,  903.099976,
  904.299988,  905.400024,  906.599976,  907.799988,  908.900024,  910.099976,
  911.200012,  912.400024,  913.500000,  914.700012,  915.799988,  917.000000,
  918.200012,  919.299988,  920.500000,  921.599976,  922.799988,  923.900024,
  925.099976,  926.200012,  927.299988,  928.500000,  929.599976,  930.799988,
  931.900024,  933.099976,  934.200012,  935.400024,  936.500000,  937.700012,
  938.799988,  939.900024,  941.099976,  942.200012,  943.299988,  944.500000,
  945.599976,  946.799988,  947.900024,  949.000000,  950.200012,  951.299988,
  952.500000,  953.599976,  954.799988,  955.900024,  957.000000,  958.200012,
  959.299988,  960.500000,  961.599976,  962.700012,  963.900024,  965.000000,
  966.200012,  967.299988,  968.400024,  969.599976,  970.700012,  971.900024,
  973.000000,  974.200012,  975.299988,  976.500000,  977.599976,  978.799988,
  979.900024,  981.000000,  982.200012,  983.400024,  984.500000,  985.700012,
  986.799988,  988.000000,  989.200012,  990.299988,  991.500000,  992.599976,
  993.799988,  995.000000,  996.200012,  997.299988,  998.500000,  999.700012,
 1000.799988, 1002.000000, 1003.200012, 1004.400024, 1005.599976, 1006.799988,
 1008.000000, 1009.200012,  970.099976,  973.900024,  977.700012,  981.500000,
  985.400024,  989.200012,  993.000000,  996.799988, 1000.599976, 1004.400024,
 1008.200012, 1012.099976, 1015.900024, 1019.700012, 1023.500000, 1027.300049,
 1031.099976, 1034.900024, 1038.800049, 1042.599976, 1046.400024, 1050.199951,
 1054.000000, 1057.800049, 1061.599976, 1065.400024, 1069.199951, 1073.000000,
 1076.800049, 1080.599976, 1084.400024, 1088.199951, 1092.000000, 1095.800049,
 1099.699951, 1103.400024, 1107.199951, 1111.099976, 1114.800049, 1118.699951,
 1122.400024, 1126.199951, 1130.000000, 1133.800049, 1137.599976, 1141.400024,
 1145.199951, 1149.000000, 1152.800049, 1156.599976, 1160.400024, 1164.199951,
 1168.000000, 1171.800049, 1175.500000, 1179.300049, 1183.099976, 1186.900024,
 1190.699951, 1194.500000, 1198.199951, 1202.000000, 1205.800049, 1209.599976,
 1213.400024, 1217.199951, 1220.900024, 1224.699951, 1228.500000, 1232.199951,
 1236.000000, 1239.800049, 1243.599976, 1247.300049, 1251.099976, 1254.900024,
 1258.699951, 1262.400024, 1266.199951, 1269.900024, 1273.699951, 1277.500000,
 1281.199951, 1285.000000, 1288.800049, 1292.500000, 1296.300049, 1300.000000,
 1303.800049, 1307.500000, 1311.300049, 1315.000000, 1318.800049, 1322.599976,
 1326.300049, 1330.000000, 1333.800049, 1337.500000, 1341.300049, 1345.000000,
 1348.800049, 1352.500000, 1356.199951, 1360.000000, 1363.699951, 1367.400024,
 1371.199951, 1374.900024, 1378.699951, 1382.400024, 1386.099976, 1389.800049,
 1393.599976, 1397.300049, 1401.000000, 1404.699951, 1408.500000, 1412.199951,
 1415.900024, 1419.599976, 1423.300049, 1427.099976, 1430.800049, 1434.500000,
 1438.199951, 1441.900024, 1445.599976, 1449.300049, 1453.000000, 1456.699951,
 1460.400024, 1464.099976, 1467.800049, 1471.500000, 1475.199951, 1478.900024,
 1482.599976, 1486.300049, 1490.000000, 1493.699951, 1497.400024, 1501.099976,
 1504.699951, 1508.400024, 1512.099976, 1515.800049, 1519.500000, 1523.099976,
 1526.800049, 1530.500000, 1534.199951, 1537.800049, 1541.500000, 1545.199951,
 1548.800049, 1552.500000, 1556.199951, 1559.800049, 1563.500000, 1567.099976,
 1570.800049, 1574.400024, 1578.099976, 1581.699951, 1585.400024, 1589.000000,
 1592.699951, 1596.300049, 1599.900024, 1603.599976, 1607.199951, 1610.900024,
 1614.500000, 1618.099976, 1621.800049, 1625.400024, 1629.000000, 1632.599976,
 1636.300049, 1639.900024, 1643.500000, 1647.099976, 1650.699951, 1654.300049,
 1658.000000, 1661.599976, 1665.199951, 1668.800049, 1672.400024, 1676.000000,
 1679.599976, 1683.199951, 1686.800049, 1690.400024, 1694.000000, 1697.599976,
 1701.199951, 1704.699951, 1708.300049, 1711.900024, 1715.500000, 1719.099976,
 1722.599976, 1726.199951, 1729.800049, 1733.300049, 1736.900024, 1740.500000,
 1744.000000, 1747.599976, 1751.199951, 1754.699951, 1758.300049, 1761.800049,
 1765.400024, 1768.900024, 1772.500000, 1776.000000, 1779.599976, 1783.099976,
 1786.599976, 1790.199951, 1793.699951, 1797.199951, 1800.800049, 1804.300049,
 1807.800049, 1811.300049, 1814.800049, 1818.400024, 1821.900024, 1825.400024,
 1828.900024, 1832.400024, 1835.900024, 1839.400024, 1842.900024, 1846.400024,
 1849.900024, 1853.400024, 1856.900024, 1860.400024, 1863.900024, 1867.400024,
 1870.800049, 1874.300049, 1877.800049, 1881.300049, 1884.699951, 1888.199951,
 1891.699951, 1895.099976, 1898.599976, 1902.800049, 1905.500000, 1908.199951,
 1910.900024, 1913.500000, 1916.199951, 1918.900024, 1921.599976, 1924.199951,
 1926.900024, 1929.599976, 1932.199951, 1934.900024, 1937.500000, 1940.199951,
 1942.800049, 1945.500000, 1948.099976, 1950.800049, 1953.400024, 1956.099976,
 1958.699951, 1961.300049, 1964.000000, 1966.599976, 1969.199951, 1971.800049,
 1974.500000, 1977.099976, 1979.699951, 1982.300049, 1984.900024, 1987.599976,
 1990.199951, 1992.800049, 1995.400024, 1998.000000, 2000.599976, 2003.199951,
 2005.800049, 2008.400024, 2011.000000, 2013.599976, 2016.199951, 2018.800049,
 2021.300049, 2023.900024, 2026.500000, 2029.099976, 2031.699951, 2034.199951,
 2036.800049, 2039.400024, 2041.900024, 2044.500000, 2047.099976, 2049.600098,
 2052.199951, 2054.800049, 2057.300049, 2059.899902, 2062.399902, 2064.899902,
 2067.500000, 2070.000000, 2072.600098, 2075.100098, 2077.699951, 2080.199951,
 2082.699951, 2085.199951, 2087.800049, 2090.300049, 2092.800049, 2095.399902,
 2097.899902, 2100.399902, 2102.899902, 2105.399902, 2107.899902, 2110.399902,
 2112.899902, 2115.399902, 2117.899902, 2120.399902, 2122.899902, 2125.399902,
 2127.899902, 2130.399902, 2132.899902, 2135.399902, 2137.899902, 2140.399902,
 2142.800049, 2145.300049, 2147.800049, 2150.300049, 2152.699951, 2155.199951,
 2157.699951, 2160.100098, 2162.600098, 2165.100098, 2167.500000, 2170.000000,
 2172.399902, 2174.899902, 2177.300049, 2179.800049, 2182.199951, 2184.699951,
 2187.100098, 2189.500000, 2192.000000, 2194.399902, 2196.800049, 2199.300049,
 2201.699951, 2204.100098, 2206.500000, 2209.000000, 2211.399902, 2213.800049,
 2216.199951, 2218.600098, 2221.000000, 2223.399902, 2225.800049, 2228.199951,
 2230.600098, 2233.000000, 2235.399902, 2237.800049, 2240.199951, 2242.600098,
 2245.000000, 2247.399902, 2249.800049, 2252.100098, 2254.500000, 2256.899902,
 2259.300049, 2261.600098, 2264.000000, 2266.399902, 2268.800049, 2271.100098,
 2273.500000, 2275.800049, 2278.199951, 2280.600098, 2282.899902, 2285.199951,
 2287.600098, 2289.899902, 2292.300049, 2294.600098, 2297.000000, 2299.300049,
 2301.600098, 2304.000000, 2306.300049, 2308.600098, 2311.000000, 2313.300049,
 2315.600098, 2317.899902, 2320.199951, 2322.600098, 2324.899902, 2327.199951,
 2329.500000, 2331.800049, 2334.100098, 2336.399902, 2338.699951, 2341.000000,
 2343.300049, 2345.600098, 2347.899902, 2350.199951, 2352.399902, 2354.699951,
 2357.000000, 2359.300049, 2361.600098, 2363.800049, 2366.100098, 2368.399902,
 2370.600098, 2372.899902, 2375.199951, 2377.399902, 2379.699951, 2382.000000,
 2384.199951, 2386.500000, 2388.699951, 2391.000000, 2393.199951, 2395.500000,
 2397.699951, 2399.899902, 2402.199951, 2404.399902, 2406.600098, 2408.899902,
 2411.100098, 2413.300049, 2415.600098, 2417.800049, 2420.000000, 2422.199951,
 2424.399902, 2426.600098, 2428.899902, 2431.100098, 2433.300049, 2435.500000,
 2437.699951, 2439.899902, 2442.100098, 2444.300049, 2446.500000, 2448.699951,
 2450.899902, 2453.100098, 2455.199951, 2457.399902, 2459.600098, 2461.800049,
 2463.899902, 2466.100098, 2468.300049, 2470.500000, 2472.600098, 2474.800049,
 2477.000000, 2479.100098, 2481.300049, 2483.399902, 2485.600098, 2487.699951,
 2489.899902, 2492.000000, 2494.199951, 2496.300049, 2498.500000, 2500.600098,
 2502.800049, 2504.899902, 2507.000000, 2509.100098, 2511.300049, 2513.399902,
 2515.500000}
